Wavelength(nm),Intensities
632.2000050576,1632.0
632.2041717242668,1666.0
632.2083383909334,1620.0
632.2125050576001,1602.0
632.2166717242667,1682.0
632.2208383909334,1642.0
632.2250050576,1624.0
632.2291717242667,1662.0
632.2333383909333,1666.0
632.2375050576001,1702.0
632.2416717242667,1768.0
632.2458383909334,1822.0
632.2500050576,1842.0
632.2541717242667,1896.0
632.2583383909333,1944.0
632.2625050576,1886.0
632.2666717242668,1844.0
632.2708383909334,1886.0
632.2750050576001,2040.0
632.2791717242667,2418.0
632.2833383909334,3014.0
632.2875050576,3540.0
632.2916717242667,3890.0
632.2958383909333,4156.0
632.3000050576001,4570.0
632.3041717242667,4966.0
632.3083383909334,5272.0
632.3125050576,5980.0
632.3166717242667,6940.0
632.3208383909333,7896.0
632.3250050576,10394.0
632.3291717242668,13290.0
632.3333383909334,15768.0
632.3375050576001,18160.0
632.3416717242667,19980.0
632.3458383909334,21198.0
632.3500050576,22072.0
632.3541717242667,22446.0
632.3583383909333,22576.0
632.3625050576001,22302.0
632.3666717242667,21768.0
632.3708383909334,21166.0
632.3750050576,20400.0
632.3791717242667,19722.0
632.3833383909333,19006.0
632.3875050576,18518.0
632.3916717242668,17322.0
632.3958383909334,16204.0
632.4000050576001,14878.0
632.4041717242667,13722.0
632.4083383909334,12106.0
632.4125050576,11120.0
632.4166717242667,9826.0
632.4208383909333,9110.0
632.4250050576001,7938.0
632.4291717242667,7208.0
632.4333383909334,6412.0
632.4375050576,5704.0
632.4416717242667,5080.0
632.4458383909333,4480.0
632.4500050576,4014.0
632.4541717242668,3768.0
632.4583383909334,2998.0
632.4625050576001,2652.0
632.4666717242667,2272.0
632.4708383909334,2058.0
632.4750050576,1786.0
632.4791717242667,1800.0
632.4833383909333,1650.0
632.4875050576001,1644.0
632.4916717242667,1660.0
632.4958383909334,1696.0
