Wavelength(nm),Intensities
632.1000050568,35780.6
632.1041717234667,35975.4
632.1083383901333,36328.0
632.1125050568,37298.2
632.1166717234667,38361.4
632.1208383901334,38939.6
632.1250050568,40565.0
632.1291717234667,42644.0
632.1333383901333,44026.6
632.1375050568,45728.0
632.1416717234666,48004.2
632.1458383901333,49168.4
632.1500050568,50680.2
632.1541717234667,52640.6
632.1583383901333,54446.0
632.1625050568,55678.8
632.1666717234667,56897.2
632.1708383901333,57919.4
632.1750050568,59412.6
632.1791717234667,61026.2
632.1833383901334,62650.2
632.1875050568,63609.4
632.1916717234667,64619.6
632.1958383901333,65476.4
632.2000050568,66152.2
632.2041717234666,66297.2
632.2083383901333,66317.6
632.2125050568,66035.2
632.2166717234667,66010.6
632.2208383901333,65716.2
632.2250050568,64995.8
632.2291717234667,64405.4
632.2333383901333,63876.0
632.2375050568,62937.4
632.2416717234667,61899.2
632.2458383901334,60401.2
632.2500050568,59603.8
632.2541717234667,58146.0
632.2583383901333,55467.6
632.2625050568,54162.0
632.2666717234666,52722.4
632.2708383901333,49988.4
632.2750050568,48851.6
632.2791717234667,48547.6
632.2833383901333,44588.2
632.2875050568,45372.6
632.2916717234667,42316.6
632.2958383901333,43564.0
